File: data/material_properties/kapton_optical_properties.csv
#Data collected from:
# - Smith & Loewenstein 1975 (28.6-182um)
# - Sahin et al. 2019 (160-3000um)

Wavenumber_sigma_cm-1,Refractive_index_n,Absorption_alpha_cm-1
3.33333,1.848,0.0230782
3.3557,1.84815,0.0243919
3.37838,1.84831,0.0257233
3.40136,1.84846,0.0270728
3.42466,1.84861,0.0284408
3.44828,1.84877,0.0298277
3.47222,1.84892,0.0312338
3.4965,1.84908,0.0326596
3.52113,1.84923,0.0341055
3.5461,1.84938,0.0355719
3.57143,1.84954,0.0370592
3.59712,1.84969,0.0385679
3.62319,1.84985,0.0400985
3.64964,1.85,0.0416515
3.67647,1.85015,0.0432273
3.7037,1.85031,0.0448264
3.73134,1.85046,0.0464494
3.7594,1.85061,0.0480966
3.78788,1.85077,0.049769
3.81679,1.85092,0.051467
3.84615,1.85108,0.053191
3.87597,1.85123,0.0549418
3.90625,1.85138,0.05672
3.93701,1.85154,0.0585261
3.96825,1.85169,0.060361
4,1.85185,0.0622251
4.03226,1.852,0.0641189
4.06504,1.85215,0.0660439
4.09836,1.85211,0.0680005
4.13223,1.85201,0.0699895
4.16667,1.8519,0.0720116
4.20168,1.8518,0.0740677
4.23729,1.85169,0.0761586
4.2735,1.85159,0.0782853
4.31034,1.85148,0.0804486
4.34783,1.85138,0.082649
4.38596,1.85128,0.0848886
4.42478,1.85117,0.0871678
4.46429,1.85107,0.0894877
4.5045,1.85096,0.0918494
4.54545,1.85086,0.0942541
4.58716,1.85075,0.0967028
4.62963,1.85065,0.099197
4.6729,1.85054,0.101738
4.71698,1.85044,0.104326
4.7619,1.85034,0.106964
4.80769,1.85023,0.109652
4.85437,1.85013,0.112393
4.90196,1.85006,0.115188
4.9505,1.85003,0.118038
5.0,1.85001,0.120945
5.05051,1.84999,0.123911
5.10204,1.84997,0.126937
5.15464,1.84994,0.130026
5.20833,1.84992,0.133178
5.26316,1.8499,0.136397
5.31915,1.84988,0.139894
5.37634,1.84986,0.145973
5.43478,1.84983,0.152185
5.49451,1.84981,0.158533
5.55556,1.84979,0.165022
5.61798,1.84977,0.171657
5.68182,1.84974,0.178443
5.74713,1.84992,0.185385
5.81395,1.85014,0.192488
5.88235,1.85035,0.199759
5.95238,1.85056,0.207202
6.0241,1.85078,0.214825
6.09756,1.85099,0.222635
6.17284,1.8512,0.230636
6.25,1.85142,0.238838
6.32911,1.85163,0.247247
6.41026,1.85185,0.255872
6.49351,1.85206,0.264721
6.57895,1.85152,0.273803
6.66667,1.85091,0.283127
6.75676,1.85031,0.292703
6.84932,1.8497,0.302541
6.94444,1.84909,0.312653
7.04225,1.84848,0.32305
7.14286,1.84787,0.333743
7.24638,1.84727,0.345175
7.35294,1.84721,0.35916
7.46269,1.84801,0.373561
7.57576,1.8488,0.388399
7.69231,1.84959,0.403693
7.8125,1.85038,0.419464
7.93651,1.85117,0.435738
8.06452,1.85196,0.452535
8.19672,1.85188,0.469883
8.33333,1.85116,0.487811
8.47458,1.85044,0.506345
8.62069,1.84973,0.525519
8.77193,1.84901,0.545365
8.92857,1.84829,0.56592
9.09091,1.84873,0.587223
9.25926,1.84918,0.611108
9.43396,1.84962,0.641487
9.61538,1.85006,0.673034
9.80392,1.85036,0.705819
10.0,1.85061,0.739914
10.2041,1.85086,0.775403
10.4167,1.8511,0.812369
10.6383,1.85076,0.850908
10.8696,1.84955,0.891122
11.1111,1.84835,0.933124
11.3636,1.8472,0.982465
11.6279,1.84841,1.0346
11.9048,1.84961,1.08922
12.1951,1.85017,1.14651
12.5,1.84866,1.20666
12.8205,1.84715,1.26989
13.1579,1.8473,1.33715
13.5135,1.84889,1.41378
13.8889,1.84986,1.49467
14.2857,1.8492,1.58019
14.7059,1.84848,1.67073
15.1515,1.8476,1.76823
15.625,1.84806,1.88604
16.129,1.85008,2.01145
16.6667,1.84734,2.14523
17.2414,1.84614,2.29122
17.8571,1.8488,2.45284
18.5185,1.84654,2.62642
19.2308,1.84683,2.81835
20.0,1.84798,3.03754
20.8333,1.84516,3.27503
21.7391,1.84696,3.54883
22.7273,1.84384,3.85028
23.8095,1.8461,4.17308
25,1.84336,4.52952
26.3158,1.84334,4.96028
27.7778,1.84452,5.42728
29.4118,1.84211,5.95435
31.25,1.84102,6.56228
33.3333,1.84062,7.23015
35.7143,1.83937,7.95519
38.4615,1.83593,8.83836
41.6667,1.83417,9.83177
45.4545,1.83131,10.7115
50,1.82601,11.6557
55.5556,1.82088,12.3654
60.0,1.77,3.1
65.0,1.781,7.5
75.0,1.785,7.8
85.0,1.793,8.3
95.0,1.806,16.0
105.0,1.808,32.2
115.0,1.804,49.3
125.0,1.805,59.1
135.0,1.811,84.8
145.0,1.808,146.3
155.0,1.792,171.1
165.0,1.738,254.5
175.0,1.709,128.2
185.0,1.723,97.5
195.0,1.73,94.5
205.0,1.726,102.2
215.0,1.726,72.9
225.0,1.723,61.4
235.0,1.743,59.2
245.0,1.758,80.1
255.0,1.745,155.9
265.0,1.721,126.0
275.0,1.716,85.2
285.0,1.728,57.8
295.0,1.733,44.5
305.0,1.736,38.1
315.0,1.74,42.4
325.0,1.742,54.6
335.0,1.746,48.4
345.0,1.751,42.5
350.0,1.754,40.0