File: data/material_properties/mylar_optical_properties.csv
# Smith & Loewenstein (1975)
# "Optical constants of far infrared materials. 3: plastics"
# NOTE: data interpolated to fill in nans from raw data

Wavenumber_sigma_cm-1,Refractive_index_n,Absorption_alpha_cm-1
50.0,1.7345,13.0
52.9293,1.73479,16.3687
55.8586,1.73509,19.7374
58.7879,1.73538,23.1061
61.7172,1.73576,25.702
64.6465,1.7362,27.7525
67.5758,1.73664,29.803
70.5051,1.73692,32.0556
73.4343,1.73648,35.2778
76.3636,1.73605,38.5
79.2929,1.73561,41.7222
82.2222,1.7335,44.7222
85.1515,1.73086,47.6515
88.0808,1.72823,50.5808
91.0101,1.72574,52.096
93.9394,1.72355,50.9242
96.8687,1.72135,49.7525
99.798,1.71915,48.5808
102.727,1.719,47.2727
105.657,1.719,45.9545
108.586,1.719,44.6364
111.515,1.71968,44.5303
114.444,1.721,45.5556
117.374,1.72232,46.5808
120.303,1.72355,47.8333
123.232,1.72398,51.0556
126.162,1.72442,55.2071
129.091,1.72486,60.7727
132.02,1.72146,66.9444
134.949,1.71634,73.3889
137.879,1.71121,85.8788
140.808,1.70681,91.202
143.737,1.70432,77.4343
146.667,1.70183,69.3333
149.596,1.69934,65.5253
152.525,1.69988,62.2222
155.455,1.70091,59
158.384,1.70193,55.7778
161.313,1.70316,54.1313
164.242,1.70462,54.4242
167.172,1.70609,54.7172
170.101,1.70751,55.0758
173.03,1.70765,57.2727
175.96,1.7078,59.4697
178.889,1.70794,61.6667
181.818,1.708,63.2273
184.747,1.708,64.399
187.677,1.708,65.5707
190.606,1.70803,66.3485
193.535,1.70818,65.6162
196.465,1.70832,64.8838
199.394,1.70847,64.1515
202.323,1.7092,64.1162
205.253,1.71008,64.2626
208.182,1.71095,64.4091
211.111,1.71183,65.2778
214.04,1.71271,67.3283
216.97,1.71359,69.3788
219.899,1.71447,71.4293
222.828,1.71436,75.0354
225.758,1.71421,78.697
228.687,1.71407,82.3586
231.616,1.71352,85.1313
234.545,1.71264,87.1818
237.475,1.71176,89.2323
240.404,1.711,90.9192
243.333,1.711,90.3333
246.263,1.711,89.7475
249.192,1.711,89.1616
252.121,1.71132,89.7424
255.051,1.71176,90.7677
257.98,1.7122,91.7929
260.909,1.71264,93.4091
263.838,1.71308,96.3384
266.768,1.71352,99.2677
269.697,1.71395,102.197
272.626,1.71426,105.783
275.556,1.71456,109.444
278.485,1.71485,113.106
281.414,1.715,115.707
284.343,1.715,117.172
287.273,1.715,118.636
290.202,1.71505,119.909
293.131,1.71578,118.591
296.061,1.71652,117.273
298.99,1.71725,115.955
301.919,1.71836,116.268
304.848,1.71968,117.439
307.778,1.721,118.611
310.707,1.72239,119.96
313.636,1.724,121.864
316.566,1.72561,123.768
319.495,1.72722,125.672
322.424,1.72871,128.182
325.354,1.73018,130.818
328.283,1.73164,133.455
331.212,1.73305,136.515
334.141,1.73436,140.177
337.071,1.73568,143.838
340.0,1.737,147.5